##TITLE=No Description
##DATA TYPE=INFRARED SPECTRUM
##XUNITS=1/CM
##YUNITS=%T
399.460154  	50.902889 
400.897061  	51.442376 
402.333968  	52.361686 
403.770875  	51.907601 
405.207782  	52.080535 
406.644689  	52.475127 
408.081596  	52.466948 
409.518503  	51.828151 
410.955410  	51.506703 
412.392317  	52.610985 
413.829224  	52.378111 
415.266131  	51.200277 
416.703038  	51.295313 
418.139945  	51.260124 
419.576852  	52.066144 
421.013759  	52.425707 
422.450666  	51.159121 
423.887574  	50.584081 
425.324481  	50.475222 
426.761388  	50.876245 
428.198295  	52.278341 
429.635202  	52.376155 
431.072109  	52.043037 
432.509016  	52.334002 
433.945923  	52.044865 
435.382830  	52.210718 
436.819737  	52.351695 
438.256644  	51.876989 
439.693551  	51.841512 
441.130458  	51.514209 
442.567365  	51.370669 
444.004272  	51.428957 
445.441179  	50.740593 
446.878086  	50.829031 
448.314993  	51.068772 
449.751900  	50.832139 
451.188807  	51.361250 
452.625714  	51.818716 
454.062621  	51.822851 
455.499528  	51.662020 
456.936435  	51.009635 
458.373342  	51.059301 
459.810249  	50.946185 
461.247156  	50.657252 
462.684063  	51.433705 
464.120970  	51.377083 
465.557877  	50.917164 
466.994784  	51.395815 
468.431691  	51.338867 
469.868598  	51.231386 
471.305505  	51.143411 
472.742413  	50.495285 
474.179320  	50.872593 
475.616227  	51.126496 
477.053134  	50.950785 
478.490041  	51.513964 
479.926948  	51.527704 
481.363855  	50.984208 
482.800762  	50.961096 
484.237669  	51.055277 
485.674576  	51.292167 
487.111483  	51.472930 
488.548390  	51.303906 
489.985297  	51.105633 
491.422204  	50.991433 
492.859111  	51.244053 
494.296018  	51.376749 
495.732925  	51.082551 
497.169832  	51.148576 
498.606739  	51.452053 
500.043646  	51.698626 
501.480553  	51.749121 
502.917460  	51.245391 
504.354367  	51.069057 
505.791274  	51.216706 
507.228181  	51.149324 
508.665088  	51.238414 
510.101995  	51.250661 
511.538902  	51.231116 
512.975809  	51.402326 
514.412716  	51.223829 
515.849623  	51.141361 
517.286530  	51.443895 
518.723437  	51.599957 
520.160344  	51.657292 
521.597251  	51.430775 
523.034159  	51.270114 
524.471066  	51.495872 
525.907973  	51.421841 
527.344880  	51.393085 
528.781787  	51.560773 
530.218694  	51.350407 
531.655601  	51.352306 
533.092508  	51.607366 
534.529415  	51.635200 
535.966322  	51.620984 
537.403229  	51.520325 
538.840136  	51.615340 
540.277043  	51.862765 
541.713950  	51.768413 
543.150857  	51.817130 
544.587764  	52.024541 
546.024671  	51.986921 
547.461578  	51.944219 
548.898485  	51.889229 
550.335392  	52.012786 
551.772299  	52.229581 
553.209206  	52.050007 
554.646113  	51.989178 
556.083020  	52.176973 
557.519927  	52.209107 
558.956834  	52.326298 
560.393741  	52.424904 
561.830648  	52.430813 
563.267555  	52.530770 
564.704462  	52.571004 
566.141369  	52.621855 
567.578276  	52.621870 
569.015183  	52.601090 
570.452090  	52.813450 
571.888997  	52.846956 
573.325905  	52.702744 
574.762812  	52.752060 
576.199719  	52.808233 
577.636626  	52.936980 
579.073533  	53.084859 
580.510440  	53.062274 
581.947347  	53.117098 
583.384254  	53.142534 
584.821161  	53.120881 
586.258068  	53.251091 
587.694975  	53.287553 
589.131882  	53.327458 
590.568789  	53.478777 
592.005696  	53.512767 
593.442603  	53.571400 
594.879510  	53.659984 
596.316417  	53.717795 
597.753324  	53.839472 
599.190231  	53.867725 
600.627138  	53.898201 
602.064045  	54.054028 
603.500952  	54.163067 
604.937859  	54.242036 
606.374766  	54.253823 
607.811673  	54.280336 
609.248580  	54.463013 
610.685487  	54.570323 
612.122394  	54.593308 
613.559301  	54.665136 
614.996208  	54.743372 
616.433115  	54.885448 
617.870022  	54.979211 
619.306929  	54.975624 
620.743836  	55.029456 
622.180744  	55.127482 
623.617651  	55.298118 
625.054558  	55.439717 
626.491465  	55.449636 
627.928372  	55.542925 
629.365279  	55.661647 
630.802186  	55.741933 
632.239093  	55.871444 
633.676000  	55.945379 
635.112907  	56.012973 
636.549814  	56.150065 
637.986721  	56.271486 
639.423628  	56.373052 
640.860535  	56.450177 
642.297442  	56.501880 
643.734349  	56.630537 
645.171256  	56.744124 
646.608163  	56.815637 
648.045070  	56.935204 
649.481977  	57.048989 
650.918884  	57.193680 
652.355791  	57.324544 
653.792698  	57.402842 
655.229605  	57.546281 
656.666512  	57.665486 
658.103419  	57.754380 
659.540326  	57.901357 
660.977233  	57.995194 
662.414140  	58.077588 
663.851047  	58.186192 
665.287954  	58.230812 
666.724861  	58.348406 
668.161768  	58.504858 
669.598675  	58.646684 
671.035582  	58.776396 
672.472490  	58.914626 
673.909397  	59.091334 
675.346304  	59.255136 
676.783211  	59.384465 
678.220118  	59.528864 
679.657025  	59.640503 
681.093932  	59.747921 
682.530839  	59.881453 
683.967746  	59.970454 
685.404653  	60.064580 
686.841560  	60.190188 
688.278467  	60.337156 
689.715374  	60.514740 
691.152281  	60.652256 
692.589188  	60.761744 
694.026095  	60.891342 
695.463002  	61.012050 
696.899909  	61.173283 
698.336816  	61.341100 
699.773723  	61.479341 
701.210630  	61.657743 
702.647537  	61.784447 
704.084444  	61.880944 
705.521351  	62.067933 
706.958258  	62.189431 
708.395165  	62.310724 
709.832072  	62.506735 
711.268979  	62.626583 
712.705886  	62.733387 
714.142793  	62.867485 
715.579700  	63.020583 
717.016607  	63.241768 
718.453514  	63.425957 
719.890421  	63.587678 
721.327328  	63.758117 
722.764236  	63.868768 
724.201143  	64.007510 
725.638050  	64.194291 
727.074957  	64.378012 
728.511864  	64.528549 
729.948771  	64.599407 
731.385678  	64.743141 
732.822585  	64.963391 
734.259492  	65.110374 
735.696399  	65.299470 
737.133306  	65.505538 
738.570213  	65.629930 
740.007120  	65.799061 
741.444027  	65.961758 
742.880934  	66.085175 
744.317841  	66.236386 
745.754748  	66.392232 
747.191655  	66.633174 
748.628562  	66.877883 
750.065469  	66.992195 
751.502376  	67.111134 
752.939283  	67.258622 
754.376190  	67.402634 
755.813097  	67.570463 
757.250004  	67.712672 
758.686911  	67.877340 
760.123818  	68.075239 
761.560725  	68.259098 
762.997632  	68.457535 
764.434539  	68.626330 
765.871446  	68.791674 
767.308353  	68.992691 
768.745260  	69.181535 
770.182167  	69.375381 
771.619075  	69.510290 
773.055982  	69.634038 
774.492889  	69.872490 
775.929796  	70.066293 
777.366703  	70.221487 
778.803610  	70.427039 
780.240517  	70.557268 
781.677424  	70.716061 
783.114331  	70.923054 
784.551238  	71.052934 
785.988145  	71.257545 
787.425052  	71.502889 
788.861959  	71.662647 
790.298866  	71.826576 
791.735773  	71.999310 
793.172680  	72.216950 
794.609587  	72.445003 
796.046494  	72.560526 
797.483401  	72.687132 
798.920308  	72.865882 
800.357215  	73.049912 
801.794122  	73.297106 
803.231029  	73.520161 
804.667936  	73.684751 
806.104843  	73.852375 
807.541750  	74.032836 
808.978657  	74.259275 
810.415564  	74.441042 
811.852471  	74.578900 
813.289378  	74.793384 
814.726285  	74.972383 
816.163192  	75.105470 
817.600099  	75.307424 
819.037006  	75.515975 
820.473913  	75.722435 
821.910821  	75.934637 
823.347728  	76.133528 
824.784635  	76.342107 
826.221542  	76.505410 
827.658449  	76.659327 
829.095356  	76.854871 
830.532263  	77.023358 
831.969170  	77.206449 
833.406077  	77.409489 
834.842984  	77.579694 
836.279891  	77.770770 
837.716798  	77.971133 
839.153705  	78.173172 
840.590612  	78.377805 
842.027519  	78.513651 
843.464426  	78.652471 
844.901333  	78.866999 
846.338240  	79.103522 
847.775147  	79.346186 
849.212054  	79.547317 
850.648961  	79.701290 
852.085868  	79.896023 
853.522775  	80.113699 
854.959682  	80.295529 
856.396589  	80.453158 
857.833496  	80.623715 
859.270403  	80.819098 
860.707310  	81.004780 
862.144217  	81.187646 
863.581124  	81.383630 
865.018031  	81.541976 
866.454938  	81.668169 
867.891845  	81.841221 
869.328752  	82.075700 
870.765660  	82.296158 
872.202567  	82.454773 
873.639474  	82.590074 
875.076381  	82.736389 
876.513288  	82.905110 
877.950195  	83.086953 
879.387102  	83.260653 
880.824009  	83.454128 
882.260916  	83.645583 
883.697823  	83.793515 
885.134730  	83.952331 
886.571637  	84.118014 
888.008544  	84.263907 
889.445451  	84.429094 
890.882358  	84.592096 
892.319265  	84.733224 
893.756172  	84.874835 
895.193079  	85.030718 
896.629986  	85.196810 
898.066893  	85.319104 
899.503800  	85.429964 
900.940707  	85.579608 
902.377614  	85.699625 
903.814521  	85.823200 
905.251428  	85.988867 
906.688335  	86.123431 
908.125242  	86.246098 
909.562149  	86.361864 
910.999056  	86.470863 
912.435963  	86.625074 
913.872870  	86.750320 
915.309777  	86.845601 
916.746684  	86.997769 
918.183591  	87.150301 
919.620498  	87.268043 
921.057406  	87.365338 
922.494313  	87.458396 
923.931220  	87.576207 
925.368127  	87.679098 
926.805034  	87.798405 
928.241941  	87.958544 
929.678848  	88.079542 
931.115755  	88.199325 
932.552662  	88.317368 
933.989569  	88.383328 
935.426476  	88.468930 
936.863383  	88.544309 
938.300290  	88.597541 
939.737197  	88.699739 
941.174104  	88.779861 
942.611011  	88.845346 
944.047918  	88.952145 
945.484825  	89.047959 
946.921732  	89.151690 
948.358639  	89.251915 
949.795546  	89.321796 
951.232453  	89.406948 
952.669360  	89.483917 
954.106267  	89.561535 
955.543174  	89.640778 
956.980081  	89.693428 
958.416988  	89.790437 
959.853895  	89.871539 
961.290802  	89.888455 
962.727709  	89.971092 
964.164616  	90.071293 
965.601523  	90.128860 
967.038430  	90.205715 
968.475337  	90.257233 
969.912244  	90.310330 
971.349152  	90.406237 
972.786059  	90.470493 
974.222966  	90.517306 
975.659873  	90.571853 
977.096780  	90.633104 
978.533687  	90.712214 
979.970594  	90.761241 
981.407501  	90.789249 
982.844408  	90.819226 
984.281315  	90.846064 
985.718222  	90.910303 
987.155129  	90.980090 
988.592036  	91.040635 
990.028943  	91.118040 
991.465850  	91.141474 
992.902757  	91.136590 
994.339664  	91.172660 
995.776571  	91.195377 
997.213478  	91.204407 
998.650385  	91.236160 
1000.087292  	91.282886 
1001.524199  	91.316640 
1002.961106  	91.314533 
1004.398013  	91.343412 
1005.834920  	91.400109 
1007.271827  	91.415343 
1008.708734  	91.457314 
1010.145641  	91.515191 
1011.582548  	91.523981 
1013.019455  	91.560775 
1014.456362  	91.618329 
1015.893269  	91.645567 
1017.330176  	91.674863 
1018.767083  	91.697605 
1020.203991  	91.718365 
1021.640898  	91.743821 
1023.077805  	91.755414 
1024.514712  	91.773503 
1025.951619  	91.787984 
1027.388526  	91.808166 
1028.825433  	91.841081 
1030.262340  	91.819802 
1031.699247  	91.784034 
1033.136154  	91.794968 
1034.573061  	91.798111 
1036.009968  	91.798125 
1037.446875  	91.823729 
1038.883782  	91.860262 
1040.320689  	91.904268 
1041.757596  	91.916786 
1043.194503  	91.902786 
1044.631410  	91.918950 
1046.068317  	91.944633 
1047.505224  	91.960020 
1048.942131  	91.994488 
1050.379038  	92.045522 
1051.815945  	92.086286 
1053.252852  	92.114665 
1054.689759  	92.147192 
1056.126666  	92.169432 
1057.563573  	92.162543 
1059.000480  	92.152939 
1060.437387  	92.177848 
1061.874294  	92.237134 
1063.311201  	92.285262 
1064.748108  	92.302632 
1066.185015  	92.310873 
1067.621922  	92.301136 
1069.058829  	92.293140 
1070.495737  	92.310482 
1071.932644  	92.311335 
1073.369551  	92.306163 
1074.806458  	92.323281 
1076.243365  	92.339638 
1077.680272  	92.361298 
1079.117179  	92.380871 
1080.554086  	92.382600 
1081.990993  	92.382499 
1083.427900  	92.376274 
1084.864807  	92.369343 
1086.301714  	92.364324 
1087.738621  	92.361824 
1089.175528  	92.372173 
1090.612435  	92.367631 
1092.049342  	92.381062 
1093.486249  	92.429374 
1094.923156  	92.422415 
1096.360063  	92.401550 
1097.796970  	92.433847 
1099.233877  	92.461871 
1100.670784  	92.493856 
1102.107691  	92.512024 
1103.544598  	92.480008 
1104.981505  	92.479584 
1106.418412  	92.516691 
1107.855319  	92.541582 
1109.292226  	92.562150 
1110.729133  	92.571920 
1112.166040  	92.576787 
1113.602947  	92.570550 
1115.039854  	92.560695 
1116.476761  	92.575126 
1117.913668  	92.577417 
1119.350575  	92.585305 
1120.787483  	92.606796 
1122.224390  	92.581703 
1123.661297  	92.578563 
1125.098204  	92.608156 
1126.535111  	92.588436 
1127.972018  	92.588269 
1129.408925  	92.622633 
1130.845832  	92.627790 
1132.282739  	92.625601 
1133.719646  	92.619942 
1135.156553  	92.625217 
1136.593460  	92.638664 
1138.030367  	92.627356 
1139.467274  	92.636126 
1140.904181  	92.645082 
1142.341088  	92.625190 
1143.777995  	92.632147 
1145.214902  	92.625507 
1146.651809  	92.592549 
1148.088716  	92.597184 
1149.525623  	92.615033 
1150.962530  	92.629191 
1152.399437  	92.630982 
1153.836344  	92.607223 
1155.273251  	92.594864 
1156.710158  	92.580685 
1158.147065  	92.564316 
1159.583972  	92.569072 
1161.020879  	92.561618 
1162.457786  	92.564787 
1163.894693  	92.581606 
1165.331600  	92.566392 
1166.768507  	92.562570 
1168.205414  	92.575761 
1169.642322  	92.569335 
1171.079229  	92.562461 
1172.516136  	92.549613 
1173.953043  	92.537024 
1175.389950  	92.536751 
1176.826857  	92.526945 
1178.263764  	92.520551 
1179.700671  	92.517348 
1181.137578  	92.511683 
1182.574485  	92.523689 
1184.011392  	92.537146 
1185.448299  	92.543598 
1186.885206  	92.535600 
1188.322113  	92.505604 
1189.759020  	92.494304 
1191.195927  	92.496759 
1192.632834  	92.484968 
1194.069741  	92.473287 
1195.506648  	92.467874 
1196.943555  	92.480842 
1198.380462  	92.486028 
1199.817369  	92.455681 
1201.254276  	92.446738 
1202.691183  	92.457795 
1204.128090  	92.455549 
1205.564997  	92.467419 
1207.001904  	92.472256 
1208.438811  	92.462399 
1209.875718  	92.462633 
1211.312625  	92.446926 
1212.749532  	92.423850 
1214.186439  	92.412601 
1215.623346  	92.408346 
1217.060253  	92.425523 
1218.497160  	92.436392 
1219.934068  	92.425538 
1221.370975  	92.424557 
1222.807882  	92.429032 
1224.244789  	92.432616 
1225.681696  	92.426133 
1227.118603  	92.400229 
1228.555510  	92.392733 
1229.992417  	92.412192 
1231.429324  	92.421362 
1232.866231  	92.401681 
1234.303138  	92.371706 
1235.740045  	92.363384 
1237.176952  	92.367070 
1238.613859  	92.375236 
1240.050766  	92.391976 
1241.487673  	92.376689 
1242.924580  	92.338401 
1244.361487  	92.323196 
1245.798394  	92.317100 
1247.235301  	92.308600 
1248.672208  	92.300613 
1250.109115  	92.292265 
1251.546022  	92.283080 
1252.982929  	92.259706 
1254.419836  	92.246214 
1255.856743  	92.248668 
1257.293650  	92.236945 
1258.730557  	92.235242 
1260.167464  	92.233764 
1261.604371  	92.209191 
1263.041278  	92.207549 
1264.478185  	92.211459 
1265.915092  	92.191347 
1267.351999  	92.178871 
1268.788907  	92.173454 
1270.225814  	92.175367 
1271.662721  	92.174828 
1273.099628  	92.151726 
1274.536535  	92.141787 
1275.973442  	92.142329 
1277.410349  	92.129450 
1278.847256  	92.116862 
1280.284163  	92.095424 
1281.721070  	92.080875 
1283.157977  	92.095394 
1284.594884  	92.112065 
1286.031791  	92.122298 
1287.468698  	92.125544 
1288.905605  	92.125666 
1290.342512  	92.132822 
1291.779419  	92.139805 
1293.216326  	92.158901 
1294.653233  	92.171418 
1296.090140  	92.155118 
1297.527047  	92.149866 
1298.963954  	92.153286 
1300.400861  	92.158037 
1301.837768  	92.183408 
1303.274675  	92.198175 
1304.711582  	92.203992 
1306.148489  	92.203786 
1307.585396  	92.205979 
1309.022303  	92.220024 
1310.459210  	92.221873 
1311.896117  	92.211559 
1313.333024  	92.218267 
1314.769931  	92.217634 
1316.206838  	92.212282 
1317.643745  	92.208828 
1319.080653  	92.214240 
1320.517560  	92.223283 
1321.954467  	92.214833 
1323.391374  	92.210082 
1324.828281  	92.217190 
1326.265188  	92.208085 
1327.702095  	92.193658 
1329.139002  	92.206308 
1330.575909  	92.209871 
1332.012816  	92.197577 
1333.449723  	92.182049 
1334.886630  	92.158462 
1336.323537  	92.147438 
1337.760444  	92.144451 
1339.197351  	92.105773 
1340.634258  	92.075149 
1342.071165  	92.062094 
1343.508072  	92.077919 
1344.944979  	92.087379 
1346.381886  	92.056183 
1347.818793  	92.019109 
1349.255700  	91.985592 
1350.692607  	91.967236 
1352.129514  	91.973310 
1353.566421  	91.945042 
1355.003328  	91.903658 
1356.440235  	91.883469 
1357.877142  	91.860006 
1359.314049  	91.844406 
1360.750956  	91.831120 
1362.187863  	91.781359 
1363.624770  	91.726613 
1365.061677  	91.701232 
1366.498584  	91.694981 
1367.935491  	91.675157 
1369.372399  	91.623931 
1370.809306  	91.577027 
1372.246213  	91.554298 
1373.683120  	91.506581 
1375.120027  	91.449966 
1376.556934  	91.416461 
1377.993841  	91.388728 
1379.430748  	91.353409 
1380.867655  	91.311965 
1382.304562  	91.284567 
1383.741469  	91.272378 
1385.178376  	91.270095 
1386.615283  	91.252618 
1388.052190  	91.210575 
1389.489097  	91.187782 
1390.926004  	91.201146 
1392.362911  	91.226827 
1393.799818  	91.249590 
1395.236725  	91.255566 
1396.673632  	91.250580 
1398.110539  	91.275791 
1399.547446  	91.307834 
1400.984353  	91.340861 
1402.421260  	91.382086 
1403.858167  	91.394049 
1405.295074  	91.376681 
1406.731981  	91.398317 
1408.168888  	91.439790 
1409.605795  	91.499129 
1411.042702  	91.518331 
1412.479609  	91.515558 
1413.916516  	91.578754 
1415.353423  	91.634466 
1416.790330  	91.669440 
1418.227238  	91.716670 
1419.664145  	91.678140 
1421.101052  	91.692557 
1422.537959  	91.771009 
1423.974866  	91.780586 
1425.411773  	91.787766 
1426.848680  	91.841967 
1428.285587  	91.871133 
1429.722494  	91.881263 
1431.159401  	91.862172 
1432.596308  	91.867025 
1434.033215  	91.899613 
1435.470122  	91.903304 
1436.907029  	91.842084 
1438.343936  	91.860417 
1439.780843  	91.922460 
1441.217750  	91.946235 
1442.654657  	91.935930 
1444.091564  	91.931573 
1445.528471  	91.939377 
1446.965378  	91.947017 
1448.402285  	91.941463 
1449.839192  	91.900988 
1451.276099  	91.882371 
1452.713006  	91.886861 
1454.149913  	91.913638 
1455.586820  	91.959608 
1457.023727  	91.955334 
1458.460634  	91.839038 
1459.897541  	91.820540 
1461.334448  	91.839584 
1462.771355  	91.893545 
1464.208262  	91.904635 
1465.645169  	91.781735 
1467.082076  	91.740662 
1468.518984  	91.792176 
1469.955891  	91.837765 
1471.392798  	91.872902 
1472.829705  	91.801224 
1474.266612  	91.686877 
1475.703519  	91.707127 
1477.140426  	91.753002 
1478.577333  	91.764305 
1480.014240  	91.760347 
1481.451147  	91.702676 
1482.888054  	91.656689 
1484.324961  	91.647166 
1485.761868  	91.650134 
1487.198775  	91.670950 
1488.635682  	91.665069 
1490.072589  	91.584140 
1491.509496  	91.512130 
1492.946403  	91.529439 
1494.383310  	91.573531 
1495.820217  	91.570597 
1497.257124  	91.530878 
1498.694031  	91.469403 
1500.130938  	91.367814 
1501.567845  	91.381308 
1503.004752  	91.452560 
1504.441659  	91.421179 
1505.878566  	91.370144 
1507.315473  	91.238500 
1508.752380  	91.122680 
1510.189287  	91.182503 
1511.626194  	91.199869 
1513.063101  	91.127173 
1514.500008  	91.084338 
1515.936915  	91.022446 
1517.373822  	90.951632 
1518.810730  	90.918839 
1520.247637  	90.895134 
1521.684544  	90.821018 
