##TITLE=No Description
##DATA TYPE=INFRARED SPECTRUM
##XUNITS=1/CM
##YUNITS=%T
399.460154  	78.791299 
400.897061  	79.796266 
402.333968  	80.812616 
403.770875  	80.489975 
405.207782  	80.977118 
406.644689  	80.428065 
408.081596  	80.171814 
409.518503  	81.182656 
410.955410  	80.964013 
412.392317  	80.850304 
413.829224  	80.294515 
415.266131  	79.128023 
416.703038  	79.958070 
418.139945  	80.520347 
419.576852  	79.719494 
421.013759  	80.625558 
422.450666  	80.414366 
423.887574  	80.102187 
425.324481  	80.530385 
426.761388  	80.125619 
428.198295  	79.834573 
429.635202  	79.503329 
431.072109  	79.237234 
432.509016  	80.177596 
433.945923  	80.457389 
435.382830  	79.644268 
436.819737  	79.157802 
438.256644  	79.324889 
439.693551  	80.152895 
441.130458  	80.480770 
442.567365  	80.101331 
444.004272  	80.061396 
445.441179  	79.575316 
446.878086  	79.027322 
448.314993  	79.261191 
449.751900  	79.622307 
451.188807  	79.712320 
452.625714  	79.246609 
454.062621  	79.277543 
455.499528  	80.311438 
456.936435  	80.696694 
458.373342  	80.203690 
459.810249  	79.932178 
461.247156  	79.600404 
462.684063  	79.615175 
464.120970  	79.694585 
465.557877  	79.497701 
466.994784  	79.302925 
468.431691  	78.854014 
469.868598  	78.804004 
471.305505  	79.129545 
472.742413  	78.908145 
474.179320  	78.984404 
475.616227  	79.079400 
477.053134  	78.810483 
478.490041  	79.047486 
479.926948  	79.092426 
481.363855  	78.874472 
482.800762  	79.291988 
484.237669  	79.492567 
485.674576  	79.406519 
487.111483  	79.666929 
488.548390  	79.571639 
489.985297  	79.082936 
491.422204  	78.977368 
492.859111  	79.339684 
494.296018  	79.528406 
495.732925  	79.345380 
497.169832  	79.336342 
498.606739  	79.483160 
500.043646  	79.303634 
501.480553  	78.960425 
502.917460  	78.959258 
504.354367  	79.268005 
505.791274  	79.337132 
507.228181  	79.184305 
508.665088  	79.271903 
510.101995  	79.322768 
511.538902  	79.237814 
512.975809  	79.292157 
514.412716  	79.279829 
515.849623  	79.262304 
517.286530  	79.393749 
518.723437  	79.433159 
520.160344  	79.425282 
521.597251  	79.477639 
523.034159  	79.616674 
524.471066  	79.678679 
525.907973  	79.398087 
527.344880  	79.236353 
528.781787  	79.329743 
530.218694  	79.332300 
531.655601  	79.436300 
533.092508  	79.533736 
534.529415  	79.424712 
535.966322  	79.281603 
537.403229  	79.106110 
538.840136  	79.163205 
540.277043  	79.386860 
541.713950  	79.260903 
543.150857  	79.151991 
544.587764  	79.277670 
546.024671  	79.297860 
547.461578  	79.320383 
548.898485  	79.287491 
550.335392  	79.195019 
551.772299  	79.296119 
553.209206  	79.364828 
554.646113  	79.378528 
556.083020  	79.469607 
557.519927  	79.447017 
558.956834  	79.442151 
560.393741  	79.562088 
561.830648  	79.571310 
563.267555  	79.515428 
564.704462  	79.578778 
566.141369  	79.689918 
567.578276  	79.703278 
569.015183  	79.700762 
570.452090  	79.764809 
571.888997  	79.763723 
573.325905  	79.706417 
574.762812  	79.674551 
576.199719  	79.698620 
577.636626  	79.802051 
579.073533  	79.807156 
580.510440  	79.733729 
581.947347  	79.763379 
583.384254  	79.766905 
584.821161  	79.800367 
586.258068  	79.957297 
587.694975  	79.958059 
589.131882  	79.818556 
590.568789  	79.783427 
592.005696  	79.884583 
593.442603  	79.952682 
594.879510  	79.848399 
596.316417  	79.794620 
597.753324  	79.880364 
599.190231  	79.870677 
600.627138  	79.875214 
602.064045  	79.964930 
603.500952  	79.992781 
604.937859  	80.031959 
606.374766  	80.065614 
607.811673  	80.092631 
609.248580  	80.129846 
610.685487  	80.113839 
612.122394  	80.067912 
613.559301  	80.164388 
614.996208  	80.191162 
616.433115  	80.229688 
617.870022  	80.312258 
619.306929  	80.285056 
620.743836  	80.310393 
622.180744  	80.407061 
623.617651  	80.426009 
625.054558  	80.464269 
626.491465  	80.554025 
627.928372  	80.594260 
629.365279  	80.605503 
630.802186  	80.652752 
632.239093  	80.709079 
633.676000  	80.756066 
635.112907  	80.781359 
636.549814  	80.800885 
637.986721  	80.839603 
639.423628  	80.889184 
640.860535  	80.930082 
642.297442  	80.980141 
643.734349  	80.989941 
645.171256  	80.984250 
646.608163  	81.036104 
648.045070  	81.101270 
649.481977  	81.124922 
650.918884  	81.145614 
652.355791  	81.192271 
653.792698  	81.263185 
655.229605  	81.329306 
656.666512  	81.370162 
658.103419  	81.411128 
659.540326  	81.468723 
660.977233  	81.511739 
662.414140  	81.544522 
663.851047  	81.562344 
665.287954  	81.649596 
666.724861  	81.734477 
668.161768  	81.688837 
669.598675  	81.642775 
671.035582  	81.703206 
672.472490  	81.747346 
673.909397  	81.885454 
675.346304  	82.000270 
676.783211  	82.017825 
678.220118  	82.067643 
679.657025  	82.114422 
681.093932  	82.180507 
682.530839  	82.286974 
683.967746  	82.334700 
685.404653  	82.367560 
686.841560  	82.424493 
688.278467  	82.490270 
689.715374  	82.567515 
691.152281  	82.607805 
692.589188  	82.638988 
694.026095  	82.716042 
695.463002  	82.752468 
696.899909  	82.797693 
698.336816  	82.888873 
699.773723  	82.928946 
701.210630  	82.955489 
702.647537  	82.980950 
704.084444  	83.049136 
705.521351  	83.146948 
706.958258  	83.221245 
708.395165  	83.289107 
709.832072  	83.371185 
711.268979  	83.432560 
712.705886  	83.499532 
714.142793  	83.543327 
715.579700  	83.579366 
717.016607  	83.628354 
718.453514  	83.691425 
719.890421  	83.786119 
721.327328  	83.871914 
722.764236  	83.874786 
724.201143  	83.907564 
725.638050  	83.959035 
727.074957  	83.966180 
728.511864  	84.066276 
729.948771  	84.191334 
731.385678  	84.294029 
732.822585  	84.403949 
734.259492  	84.429717 
735.696399  	84.492513 
737.133306  	84.624289 
738.570213  	84.631881 
740.007120  	84.579939 
741.444027  	84.615498 
742.880934  	84.755985 
744.317841  	84.926362 
745.754748  	85.020988 
747.191655  	85.090059 
748.628562  	85.149589 
750.065469  	85.180636 
751.502376  	85.255855 
752.939283  	85.320203 
754.376190  	85.374400 
755.813097  	85.476807 
757.250004  	85.539995 
758.686911  	85.609425 
760.123818  	85.698053 
761.560725  	85.706634 
762.997632  	85.750869 
764.434539  	85.858091 
765.871446  	85.915548 
767.308353  	85.962146 
768.745260  	86.039931 
770.182167  	86.149383 
771.619075  	86.236961 
773.055982  	86.285075 
774.492889  	86.404540 
775.929796  	86.528915 
777.366703  	86.568053 
778.803610  	86.626531 
780.240517  	86.719779 
781.677424  	86.821184 
783.114331  	86.888359 
784.551238  	86.875782 
785.988145  	86.933649 
787.425052  	87.081877 
788.861959  	87.162807 
790.298866  	87.196318 
791.735773  	87.254509 
793.172680  	87.373410 
794.609587  	87.501542 
796.046494  	87.530620 
797.483401  	87.561149 
798.920308  	87.650478 
800.357215  	87.714235 
801.794122  	87.811525 
803.231029  	87.921355 
804.667936  	87.953918 
806.104843  	88.009408 
807.541750  	88.138713 
808.978657  	88.264367 
810.415564  	88.343511 
811.852471  	88.390986 
813.289378  	88.463941 
814.726285  	88.576690 
816.163192  	88.673205 
817.600099  	88.721094 
819.037006  	88.772553 
820.473913  	88.871053 
821.910821  	88.963198 
823.347728  	89.040291 
824.784635  	89.124692 
826.221542  	89.171960 
827.658449  	89.223414 
829.095356  	89.322117 
830.532263  	89.412069 
831.969170  	89.491805 
833.406077  	89.563401 
834.842984  	89.642859 
836.279891  	89.747728 
837.716798  	89.792283 
839.153705  	89.823550 
840.590612  	89.937239 
842.027519  	90.040098 
843.464426  	90.118022 
844.901333  	90.199613 
846.338240  	90.240463 
847.775147  	90.312697 
849.212054  	90.428802 
850.648961  	90.508299 
852.085868  	90.597304 
853.522775  	90.720832 
854.959682  	90.830870 
856.396589  	90.913006 
857.833496  	90.971681 
859.270403  	91.033889 
860.707310  	91.098181 
862.144217  	91.147139 
863.581124  	91.219277 
865.018031  	91.329304 
866.454938  	91.432630 
867.891845  	91.482639 
869.328752  	91.509751 
870.765660  	91.587053 
872.202567  	91.680620 
873.639474  	91.757146 
875.076381  	91.855170 
876.513288  	91.930486 
877.950195  	91.976704 
879.387102  	92.068413 
880.824009  	92.168338 
882.260916  	92.241956 
883.697823  	92.333778 
885.134730  	92.422465 
886.571637  	92.471909 
888.008544  	92.507404 
889.445451  	92.571672 
890.882358  	92.675363 
892.319265  	92.760622 
893.756172  	92.790946 
895.193079  	92.828748 
896.629986  	92.919166 
898.066893  	93.012465 
899.503800  	93.055788 
900.940707  	93.079306 
902.377614  	93.139518 
903.814521  	93.207592 
905.251428  	93.231756 
906.688335  	93.259563 
908.125242  	93.324836 
909.562149  	93.364115 
910.999056  	93.380024 
912.435963  	93.432078 
913.872870  	93.499476 
915.309777  	93.571856 
916.746684  	93.654612 
918.183591  	93.703429 
919.620498  	93.743786 
921.057406  	93.798566 
922.494313  	93.818231 
923.931220  	93.868669 
925.368127  	93.992838 
926.805034  	94.059550 
928.241941  	94.064062 
929.678848  	94.116415 
931.115755  	94.177087 
932.552662  	94.207352 
933.989569  	94.261113 
935.426476  	94.313610 
936.863383  	94.325060 
938.300290  	94.343344 
939.737197  	94.388357 
941.174104  	94.424010 
942.611011  	94.437074 
944.047918  	94.440119 
945.484825  	94.466443 
946.921732  	94.532987 
948.358639  	94.592929 
949.795546  	94.630474 
951.232453  	94.680969 
952.669360  	94.716693 
954.106267  	94.731040 
955.543174  	94.784336 
956.980081  	94.831308 
958.416988  	94.813705 
959.853895  	94.819983 
961.290802  	94.882191 
962.727709  	94.924890 
964.164616  	94.953875 
965.601523  	94.995486 
967.038430  	95.022177 
968.475337  	95.037278 
969.912244  	95.050124 
971.349152  	95.067700 
972.786059  	95.118478 
974.222966  	95.175710 
975.659873  	95.193851 
977.096780  	95.196171 
978.533687  	95.211501 
979.970594  	95.241155 
981.407501  	95.285407 
982.844408  	95.326900 
984.281315  	95.343144 
985.718222  	95.345826 
987.155129  	95.364070 
988.592036  	95.402497 
990.028943  	95.445474 
991.465850  	95.461447 
992.902757  	95.440502 
994.339664  	95.453829 
995.776571  	95.507594 
997.213478  	95.494698 
998.650385  	95.460582 
1000.087292  	95.503413 
1001.524199  	95.537103 
1002.961106  	95.528072 
1004.398013  	95.525524 
1005.834920  	95.502428 
1007.271827  	95.494350 
1008.708734  	95.525118 
1010.145641  	95.535139 
1011.582548  	95.550419 
1013.019455  	95.578624 
1014.456362  	95.588606 
1015.893269  	95.616430 
1017.330176  	95.632929 
1018.767083  	95.625143 
1020.203991  	95.648050 
1021.640898  	95.650221 
1023.077805  	95.630128 
1024.514712  	95.679876 
1025.951619  	95.739920 
1027.388526  	95.711818 
1028.825433  	95.646387 
1030.262340  	95.634662 
1031.699247  	95.655973 
1033.136154  	95.630924 
1034.573061  	95.594840 
1036.009968  	95.607389 
1037.446875  	95.615049 
1038.883782  	95.608854 
1040.320689  	95.639509 
1041.757596  	95.682559 
1043.194503  	95.693724 
1044.631410  	95.682102 
1046.068317  	95.699468 
1047.505224  	95.740381 
1048.942131  	95.737442 
1050.379038  	95.730297 
1051.815945  	95.776419 
1053.252852  	95.813618 
1054.689759  	95.807114 
1056.126666  	95.783871 
1057.563573  	95.785463 
1059.000480  	95.846400 
1060.437387  	95.899779 
1061.874294  	95.891769 
1063.311201  	95.884419 
1064.748108  	95.904373 
1066.185015  	95.921860 
1067.621922  	95.920288 
1069.058829  	95.907645 
1070.495737  	95.920218 
1071.932644  	95.936379 
1073.369551  	95.918035 
1074.806458  	95.924548 
1076.243365  	95.973851 
1077.680272  	95.997147 
1079.117179  	95.984410 
1080.554086  	95.966249 
1081.990993  	95.959251 
1083.427900  	95.965626 
1084.864807  	95.960711 
1086.301714  	95.954777 
1087.738621  	95.962415 
1089.175528  	95.945009 
1090.612435  	95.925799 
1092.049342  	95.946235 
1093.486249  	95.964674 
1094.923156  	95.983534 
1096.360063  	96.010535 
1097.796970  	95.993844 
1099.233877  	95.981800 
1100.670784  	96.019657 
1102.107691  	96.035218 
1103.544598  	96.022397 
1104.981505  	96.016993 
1106.418412  	96.014564 
1107.855319  	96.032557 
1109.292226  	96.059730 
1110.729133  	96.068274 
1112.166040  	96.059301 
1113.602947  	96.046234 
1115.039854  	96.071563 
1116.476761  	96.097966 
1117.913668  	96.064929 
1119.350575  	96.051721 
1120.787483  	96.077128 
1122.224390  	96.078758 
1123.661297  	96.083765 
1125.098204  	96.085368 
1126.535111  	96.076351 
1127.972018  	96.098183 
1129.408925  	96.108728 
1130.845832  	96.111515 
1132.282739  	96.147740 
1133.719646  	96.148322 
1135.156553  	96.109007 
1136.593460  	96.099530 
1138.030367  	96.108288 
1139.467274  	96.107819 
1140.904181  	96.104183 
1142.341088  	96.110209 
1143.777995  	96.122077 
1145.214902  	96.132403 
1146.651809  	96.150829 
1148.088716  	96.138999 
1149.525623  	96.092455 
1150.962530  	96.090743 
1152.399437  	96.110010 
1153.836344  	96.093196 
1155.273251  	96.089031 
1156.710158  	96.103253 
1158.147065  	96.098562 
1159.583972  	96.091096 
1161.020879  	96.096257 
1162.457786  	96.103812 
1163.894693  	96.100474 
1165.331600  	96.100200 
1166.768507  	96.113011 
1168.205414  	96.100247 
1169.642322  	96.066599 
1171.079229  	96.057857 
1172.516136  	96.064196 
1173.953043  	96.064529 
1175.389950  	96.066461 
1176.826857  	96.076229 
1178.263764  	96.075729 
1179.700671  	96.048859 
1181.137578  	96.037071 
1182.574485  	96.053437 
1184.011392  	96.044466 
1185.448299  	96.021151 
1186.885206  	96.022582 
1188.322113  	96.030213 
1189.759020  	96.034637 
1191.195927  	96.045736 
1192.632834  	96.053689 
1194.069741  	96.039688 
1195.506648  	96.016306 
1196.943555  	96.016390 
1198.380462  	96.019212 
1199.817369  	96.006414 
1201.254276  	96.006262 
1202.691183  	96.002676 
1204.128090  	95.984593 
1205.564997  	95.982210 
1207.001904  	95.983020 
1208.438811  	95.979635 
1209.875718  	95.982669 
1211.312625  	95.973485 
1212.749532  	95.962140 
1214.186439  	95.970267 
1215.623346  	95.981857 
1217.060253  	95.982979 
1218.497160  	95.983180 
1219.934068  	95.993128 
1221.370975  	95.986688 
1222.807882  	95.953510 
1224.244789  	95.942467 
1225.681696  	95.959321 
1227.118603  	95.970273 
1228.555510  	95.969022 
1229.992417  	95.943868 
1231.429324  	95.920260 
1232.866231  	95.933574 
1234.303138  	95.942873 
1235.740045  	95.932613 
1237.176952  	95.934089 
1238.613859  	95.938882 
1240.050766  	95.936299 
1241.487673  	95.928904 
1242.924580  	95.919389 
1244.361487  	95.911634 
1245.798394  	95.890134 
1247.235301  	95.867995 
1248.672208  	95.877125 
1250.109115  	95.890104 
1251.546022  	95.880297 
1252.982929  	95.868270 
1254.419836  	95.862836 
1255.856743  	95.856981 
1257.293650  	95.850584 
1258.730557  	95.844361 
1260.167464  	95.837719 
1261.604371  	95.833454 
1263.041278  	95.833136 
1264.478185  	95.819242 
1265.915092  	95.785517 
1267.351999  	95.769350 
1268.788907  	95.779725 
1270.225814  	95.773062 
1271.662721  	95.750666 
1273.099628  	95.750086 
1274.536535  	95.754978 
1275.973442  	95.739313 
1277.410349  	95.723372 
1278.847256  	95.724177 
1280.284163  	95.734918 
1281.721070  	95.741394 
1283.157977  	95.730547 
1284.594884  	95.720937 
1286.031791  	95.734050 
1287.468698  	95.751465 
1288.905605  	95.760371 
1290.342512  	95.764283 
1291.779419  	95.759490 
1293.216326  	95.754473 
1294.653233  	95.754657 
1296.090140  	95.754758 
1297.527047  	95.759946 
1298.963954  	95.772048 
1300.400861  	95.785199 
1301.837768  	95.792807 
1303.274675  	95.794897 
1304.711582  	95.804963 
1306.148489  	95.803261 
1307.585396  	95.809139 
1309.022303  	95.810835 
1310.459210  	95.822533 
1311.896117  	95.826283 
1313.333024  	95.828760 
1314.769931  	95.827814 
1316.206838  	95.829561 
1317.643745  	95.824993 
1319.080653  	95.813730 
1320.517560  	95.808768 
1321.954467  	95.809605 
1323.391374  	95.813138 
1324.828281  	95.820747 
1326.265188  	95.822246 
1327.702095  	95.820581 
1329.139002  	95.813507 
1330.575909  	95.797864 
1332.012816  	95.794301 
1333.449723  	95.786098 
1334.886630  	95.769138 
1336.323537  	95.758572 
1337.760444  	95.741619 
1339.197351  	95.720732 
1340.634258  	95.710035 
1342.071165  	95.713726 
1343.508072  	95.703016 
1344.944979  	95.685629 
1346.381886  	95.674272 
1347.818793  	95.678967 
1349.255700  	95.673213 
1350.692607  	95.644435 
1352.129514  	95.624666 
1353.566421  	95.604254 
1355.003328  	95.587901 
1356.440235  	95.571143 
1357.877142  	95.550029 
1359.314049  	95.547752 
1360.750956  	95.548596 
1362.187863  	95.526027 
1363.624770  	95.478020 
1365.061677  	95.457305 
1366.498584  	95.432951 
1367.935491  	95.396488 
1369.372399  	95.354081 
1370.809306  	95.325170 
1372.246213  	95.321099 
1373.683120  	95.309789 
1375.120027  	95.247564 
1376.556934  	95.178290 
1377.993841  	95.147476 
1379.430748  	95.135544 
1380.867655  	95.129857 
1382.304562  	95.123550 
1383.741469  	95.100471 
1385.178376  	95.091606 
1386.615283  	95.053865 
1388.052190  	95.001559 
1389.489097  	95.002195 
1390.926004  	95.020519 
1392.362911  	95.052531 
1393.799818  	95.064572 
1395.236725  	95.040680 
1396.673632  	95.051331 
1398.110539  	95.102598 
1399.547446  	95.105154 
1400.984353  	95.093308 
1402.421260  	95.136654 
1403.858167  	95.200585 
1405.295074  	95.238457 
1406.731981  	95.237611 
1408.168888  	95.198260 
1409.605795  	95.209453 
1411.042702  	95.260952 
1412.479609  	95.303895 
1413.916516  	95.359116 
1415.353423  	95.391627 
1416.790330  	95.420323 
1418.227238  	95.455550 
1419.664145  	95.393782 
1421.101052  	95.408534 
1422.537959  	95.493144 
1423.974866  	95.515847 
1425.411773  	95.503761 
1426.848680  	95.536151 
1428.285587  	95.534744 
1429.722494  	95.512636 
1431.159401  	95.529338 
1432.596308  	95.527349 
1434.033215  	95.564906 
1435.470122  	95.653855 
1436.907029  	95.597257 
1438.343936  	95.511682 
1439.780843  	95.537099 
1441.217750  	95.568845 
1442.654657  	95.582011 
1444.091564  	95.615229 
1445.528471  	95.644444 
1446.965378  	95.648496 
1448.402285  	95.590785 
1449.839192  	95.576261 
1451.276099  	95.669998 
1452.713006  	95.722612 
1454.149913  	95.704598 
1455.586820  	95.730446 
1457.023727  	95.621082 
1458.460634  	95.572066 
1459.897541  	95.645922 
1461.334448  	95.638354 
1462.771355  	95.622254 
1464.208262  	95.646378 
1465.645169  	95.670183 
1467.082076  	95.675918 
1468.518984  	95.624096 
1469.955891  	95.593250 
1471.392798  	95.626697 
1472.829705  	95.587936 
1474.266612  	95.620859 
1475.703519  	95.680167 
1477.140426  	95.590321 
1478.577333  	95.518648 
1480.014240  	95.538128 
1481.451147  	95.552675 
1482.888054  	95.591551 
1484.324961  	95.611323 
1485.761868  	95.578991 
1487.198775  	95.551483 
1488.635682  	95.515512 
1490.072589  	95.465534 
1491.509496  	95.467544 
1492.946403  	95.490511 
1494.383310  	95.526386 
1495.820217  	95.506140 
1497.257124  	95.397753 
1498.694031  	95.369392 
1500.130938  	95.366129 
1501.567845  	95.335917 
1503.004752  	95.337521 
1504.441659  	95.380878 
1505.878566  	95.413276 
1507.315473  	95.280323 
1508.752380  	95.199279 
1510.189287  	95.198979 
1511.626194  	95.178353 
1513.063101  	95.162668 
1514.500008  	95.190348 
1515.936915  	95.170048 
1517.373822  	95.073108 
1518.810730  	95.059758 
1520.247637  	95.085692 
1521.684544  	94.987312 
