##TITLE=No Description
##DATA TYPE=INFRARED SPECTRUM
##XUNITS=1/CM
##YUNITS=%T
399.460154  	43.189944 
400.897061  	41.119002 
402.333968  	39.946592 
403.770875  	39.457607 
405.207782  	39.837213 
406.644689  	41.509311 
408.081596  	40.703163 
409.518503  	40.422187 
410.955410  	41.282727 
412.392317  	40.813017 
413.829224  	41.247774 
415.266131  	41.001140 
416.703038  	40.279580 
418.139945  	41.783543 
419.576852  	41.857490 
421.013759  	41.469051 
422.450666  	41.427236 
423.887574  	39.906278 
425.324481  	39.874436 
426.761388  	40.182415 
428.198295  	39.846662 
429.635202  	39.986278 
431.072109  	39.313407 
432.509016  	39.753320 
433.945923  	40.868568 
435.382830  	39.953478 
436.819737  	39.965827 
438.256644  	40.488716 
439.693551  	40.040660 
441.130458  	40.930845 
442.567365  	41.302980 
444.004272  	40.347058 
445.441179  	40.309036 
446.878086  	40.221855 
448.314993  	40.125454 
449.751900  	39.854022 
451.188807  	39.560801 
452.625714  	40.258074 
454.062621  	40.211949 
455.499528  	39.817009 
456.936435  	40.372890 
458.373342  	40.876014 
459.810249  	40.991483 
461.247156  	40.663060 
462.684063  	40.163461 
464.120970  	40.068569 
465.557877  	39.631206 
466.994784  	39.913818 
468.431691  	40.465073 
469.868598  	39.598531 
471.305505  	39.492239 
472.742413  	40.104272 
474.179320  	39.832088 
475.616227  	40.056274 
477.053134  	40.026144 
478.490041  	39.587668 
479.926948  	39.783464 
481.363855  	39.942480 
482.800762  	40.059531 
484.237669  	39.924908 
485.674576  	39.742233 
487.111483  	40.158455 
488.548390  	39.945819 
489.985297  	39.533525 
491.422204  	39.827485 
492.859111  	39.809779 
494.296018  	39.844043 
495.732925  	39.935903 
497.169832  	39.874078 
498.606739  	40.430280 
500.043646  	40.424505 
501.480553  	39.740048 
502.917460  	39.866154 
504.354367  	40.027712 
505.791274  	40.069161 
507.228181  	40.300991 
508.665088  	40.015903 
510.101995  	39.809656 
511.538902  	39.869722 
512.975809  	39.947389 
514.412716  	40.142529 
515.849623  	39.968138 
517.286530  	39.973845 
518.723437  	40.499675 
520.160344  	40.467080 
521.597251  	40.199173 
523.034159  	40.166524 
524.471066  	40.206916 
525.907973  	40.439557 
527.344880  	40.477131 
528.781787  	40.428609 
530.218694  	40.541204 
531.655601  	40.501023 
533.092508  	40.536457 
534.529415  	40.699654 
535.966322  	40.784087 
537.403229  	40.849908 
538.840136  	40.706689 
540.277043  	40.716066 
541.713950  	41.076748 
543.150857  	41.126909 
544.587764  	40.938925 
546.024671  	40.854061 
547.461578  	40.910462 
548.898485  	41.197126 
550.335392  	41.313662 
551.772299  	41.180512 
553.209206  	41.181164 
554.646113  	41.275594 
556.083020  	41.400714 
557.519927  	41.394164 
558.956834  	41.273863 
560.393741  	41.394999 
561.830648  	41.557301 
563.267555  	41.617380 
564.704462  	41.742791 
566.141369  	41.816201 
567.578276  	41.868670 
569.015183  	41.943107 
570.452090  	42.017830 
571.888997  	42.184791 
573.325905  	42.277357 
574.762812  	42.305771 
576.199719  	42.397016 
577.636626  	42.428494 
579.073533  	42.523636 
580.510440  	42.684588 
581.947347  	42.726171 
583.384254  	42.780751 
584.821161  	42.862541 
586.258068  	42.986383 
587.694975  	43.165338 
589.131882  	43.167424 
590.568789  	43.136703 
592.005696  	43.306302 
593.442603  	43.456312 
594.879510  	43.503901 
596.316417  	43.572276 
597.753324  	43.702970 
599.190231  	43.818113 
600.627138  	43.849933 
602.064045  	43.943220 
603.500952  	44.076034 
604.937859  	44.167777 
606.374766  	44.293215 
607.811673  	44.400908 
609.248580  	44.453790 
610.685487  	44.519423 
612.122394  	44.607884 
613.559301  	44.763371 
614.996208  	44.846987 
616.433115  	44.838527 
617.870022  	44.998584 
619.306929  	45.149739 
620.743836  	45.192184 
622.180744  	45.362755 
623.617651  	45.529558 
625.054558  	45.607561 
626.491465  	45.709317 
627.928372  	45.821329 
629.365279  	45.972157 
630.802186  	46.076452 
632.239093  	46.138973 
633.676000  	46.323872 
635.112907  	46.500944 
636.549814  	46.641646 
637.986721  	46.836256 
639.423628  	46.965660 
640.860535  	47.084396 
642.297442  	47.237577 
643.734349  	47.397351 
645.171256  	47.580927 
646.608163  	47.727363 
648.045070  	47.822009 
649.481977  	47.942687 
650.918884  	48.095410 
652.355791  	48.254092 
653.792698  	48.372866 
655.229605  	48.489418 
656.666512  	48.627973 
658.103419  	48.743753 
659.540326  	48.856670 
660.977233  	48.977636 
662.414140  	49.072982 
663.851047  	49.212349 
665.287954  	49.251729 
666.724861  	49.263243 
668.161768  	49.565229 
669.598675  	49.877909 
671.035582  	49.918258 
672.472490  	50.034428 
673.909397  	50.170396 
675.346304  	50.277893 
676.783211  	50.426875 
678.220118  	50.572403 
679.657025  	50.703788 
681.093932  	50.856136 
682.530839  	50.980692 
683.967746  	51.145631 
685.404653  	51.320566 
686.841560  	51.445488 
688.278467  	51.598988 
689.715374  	51.781125 
691.152281  	51.984249 
692.589188  	52.222167 
694.026095  	52.408595 
695.463002  	52.611675 
696.899909  	52.834864 
698.336816  	52.993177 
699.773723  	53.152841 
701.210630  	53.364908 
702.647537  	53.611931 
704.084444  	53.825887 
705.521351  	53.984242 
706.958258  	54.175084 
708.395165  	54.390457 
709.832072  	54.568293 
711.268979  	54.756259 
712.705886  	54.949424 
714.142793  	55.137023 
715.579700  	55.391072 
717.016607  	55.614621 
718.453514  	55.830623 
719.890421  	56.118948 
721.327328  	56.325050 
722.764236  	56.454686 
724.201143  	56.637744 
725.638050  	56.811104 
727.074957  	56.946871 
728.511864  	57.133412 
729.948771  	57.384576 
731.385678  	57.614821 
732.822585  	57.790310 
734.259492  	57.972936 
735.696399  	58.167532 
737.133306  	58.348956 
738.570213  	58.539952 
740.007120  	58.749630 
741.444027  	58.972555 
742.880934  	59.141746 
744.317841  	59.245346 
745.754748  	59.430623 
747.191655  	59.662452 
748.628562  	59.820130 
750.065469  	60.053258 
751.502376  	60.349041 
752.939283  	60.489188 
754.376190  	60.633982 
755.813097  	60.939480 
757.250004  	61.174612 
758.686911  	61.330295 
760.123818  	61.568087 
761.560725  	61.774620 
762.997632  	61.963443 
764.434539  	62.228230 
765.871446  	62.406332 
767.308353  	62.534471 
768.745260  	62.753057 
770.182167  	62.947837 
771.619075  	63.145940 
773.055982  	63.398184 
774.492889  	63.587556 
775.929796  	63.787238 
777.366703  	64.030625 
778.803610  	64.222521 
780.240517  	64.414494 
781.677424  	64.599268 
783.114331  	64.796036 
784.551238  	65.084844 
785.988145  	65.308356 
787.425052  	65.418231 
788.861959  	65.588958 
790.298866  	65.813870 
791.735773  	66.015652 
793.172680  	66.203740 
794.609587  	66.394638 
796.046494  	66.613882 
797.483401  	66.856783 
798.920308  	67.069431 
800.357215  	67.206971 
801.794122  	67.342673 
803.231029  	67.570148 
804.667936  	67.804868 
806.104843  	68.040535 
807.541750  	68.371329 
808.978657  	68.680551 
810.415564  	68.910223 
811.852471  	69.188144 
813.289378  	69.522314 
814.726285  	69.844072 
816.163192  	70.104728 
817.600099  	70.321727 
819.037006  	70.553688 
820.473913  	70.752802 
821.910821  	70.933391 
823.347728  	71.175547 
824.784635  	71.425457 
826.221542  	71.642709 
827.658449  	71.844527 
829.095356  	72.048073 
830.532263  	72.279894 
831.969170  	72.506536 
833.406077  	72.716082 
834.842984  	72.930021 
836.279891  	73.149208 
837.716798  	73.378418 
839.153705  	73.566145 
840.590612  	73.757642 
842.027519  	74.044856 
843.464426  	74.306678 
844.901333  	74.506662 
846.338240  	74.728980 
847.775147  	74.921181 
849.212054  	75.104468 
850.648961  	75.315089 
852.085868  	75.514203 
853.522775  	75.733458 
854.959682  	75.942145 
856.396589  	76.114348 
857.833496  	76.293322 
859.270403  	76.482146 
860.707310  	76.735452 
862.144217  	77.019780 
863.581124  	77.244402 
865.018031  	77.472635 
866.454938  	77.707128 
867.891845  	77.925007 
869.328752  	78.167080 
870.765660  	78.418298 
872.202567  	78.684267 
873.639474  	78.899864 
875.076381  	79.057561 
876.513288  	79.294716 
877.950195  	79.521883 
879.387102  	79.689745 
880.824009  	79.896947 
882.260916  	80.052667 
883.697823  	80.193570 
885.134730  	80.385125 
886.571637  	80.525109 
888.008544  	80.666303 
889.445451  	80.790792 
890.882358  	80.861050 
892.319265  	81.010447 
893.756172  	81.184182 
895.193079  	81.308819 
896.629986  	81.432631 
898.066893  	81.558295 
899.503800  	81.689309 
900.940707  	81.742817 
902.377614  	81.769973 
903.814521  	81.874766 
905.251428  	81.884041 
906.688335  	81.842410 
908.125242  	81.846654 
909.562149  	81.714246 
910.999056  	81.539614 
912.435963  	81.448503 
913.872870  	81.432762 
915.309777  	81.610455 
916.746684  	81.858128 
918.183591  	82.093124 
919.620498  	82.416743 
921.057406  	82.692899 
922.494313  	82.997839 
923.931220  	83.441694 
925.368127  	83.809243 
926.805034  	84.142478 
928.241941  	84.474931 
929.678848  	84.693689 
931.115755  	84.920838 
932.552662  	85.140246 
933.989569  	85.288733 
935.426476  	85.445079 
936.863383  	85.577918 
938.300290  	85.701479 
939.737197  	85.814901 
941.174104  	85.879740 
942.611011  	85.949747 
944.047918  	85.994184 
945.484825  	86.033607 
946.921732  	86.075230 
948.358639  	86.012547 
949.795546  	85.928326 
951.232453  	85.868392 
952.669360  	85.814462 
954.106267  	85.883788 
955.543174  	86.042152 
956.980081  	86.251961 
958.416988  	86.528836 
959.853895  	86.738288 
961.290802  	86.900412 
962.727709  	87.058694 
964.164616  	87.167788 
965.601523  	87.319961 
967.038430  	87.486560 
968.475337  	87.602401 
969.912244  	87.698431 
971.349152  	87.730859 
972.786059  	87.757430 
974.222966  	87.800316 
975.659873  	87.809380 
977.096780  	87.863192 
978.533687  	87.924983 
979.970594  	87.984545 
981.407501  	88.108046 
982.844408  	88.191702 
984.281315  	88.272585 
985.718222  	88.400625 
987.155129  	88.461589 
988.592036  	88.504752 
990.028943  	88.547865 
991.465850  	88.572161 
992.902757  	88.650390 
994.339664  	88.713256 
995.776571  	88.745932 
997.213478  	88.785861 
998.650385  	88.786977 
1000.087292  	88.824883 
1001.524199  	88.909640 
1002.961106  	88.979549 
1004.398013  	89.055069 
1005.834920  	89.087244 
1007.271827  	89.107494 
1008.708734  	89.162448 
1010.145641  	89.187843 
1011.582548  	89.222768 
1013.019455  	89.263469 
1014.456362  	89.283375 
1015.893269  	89.332121 
1017.330176  	89.351467 
1018.767083  	89.355897 
1020.203991  	89.394483 
1021.640898  	89.425293 
1023.077805  	89.471252 
1024.514712  	89.472771 
1025.951619  	89.439089 
1027.388526  	89.484185 
1028.825433  	89.504114 
1030.262340  	89.500125 
1031.699247  	89.533237 
1033.136154  	89.489680 
1034.573061  	89.448338 
1036.009968  	89.449934 
1037.446875  	89.414021 
1038.883782  	89.424771 
1040.320689  	89.438618 
1041.757596  	89.416665 
1043.194503  	89.446423 
1044.631410  	89.480293 
1046.068317  	89.529294 
1047.505224  	89.572916 
1048.942131  	89.544835 
1050.379038  	89.538855 
1051.815945  	89.512577 
1053.252852  	89.467766 
1054.689759  	89.529747 
1056.126666  	89.588404 
1057.563573  	89.616185 
1059.000480  	89.672865 
1060.437387  	89.706509 
1061.874294  	89.765681 
1063.311201  	89.810631 
1064.748108  	89.805519 
1066.185015  	89.834631 
1067.621922  	89.824269 
1069.058829  	89.786131 
1070.495737  	89.783392 
1071.932644  	89.759880 
1073.369551  	89.758511 
1074.806458  	89.755016 
1076.243365  	89.743032 
1077.680272  	89.781611 
1079.117179  	89.757934 
1080.554086  	89.732839 
1081.990993  	89.773043 
1083.427900  	89.729091 
1084.864807  	89.681878 
1086.301714  	89.650408 
1087.738621  	89.534445 
1089.175528  	89.457026 
1090.612435  	89.415222 
1092.049342  	89.383551 
1093.486249  	89.453003 
1094.923156  	89.557164 
1096.360063  	89.669685 
1097.796970  	89.778673 
1099.233877  	89.835767 
1100.670784  	89.904649 
1102.107691  	89.950424 
1103.544598  	89.964027 
1104.981505  	90.003318 
1106.418412  	90.024035 
1107.855319  	90.063302 
1109.292226  	90.094160 
1110.729133  	90.077496 
1112.166040  	90.121748 
1113.602947  	90.132125 
1115.039854  	90.069801 
1116.476761  	90.082518 
1117.913668  	90.104344 
1119.350575  	90.110608 
1120.787483  	90.140711 
1122.224390  	90.122276 
1123.661297  	90.093775 
1125.098204  	90.077879 
1126.535111  	90.080698 
1127.972018  	90.126307 
1129.408925  	90.110568 
1130.845832  	90.071255 
1132.282739  	90.089602 
1133.719646  	90.091193 
1135.156553  	90.102408 
1136.593460  	90.126600 
1138.030367  	90.114102 
1139.467274  	90.102305 
1140.904181  	90.086690 
1142.341088  	90.092051 
1143.777995  	90.102341 
1145.214902  	90.062734 
1146.651809  	90.063591 
1148.088716  	90.083337 
1149.525623  	90.058564 
1150.962530  	90.061215 
1152.399437  	90.057822 
1153.836344  	90.045199 
1155.273251  	90.053126 
1156.710158  	90.024094 
1158.147065  	90.011012 
1159.583972  	90.008096 
1161.020879  	89.968592 
1162.457786  	89.962843 
1163.894693  	89.943088 
1165.331600  	89.905727 
1166.768507  	89.918903 
1168.205414  	89.898522 
1169.642322  	89.859931 
1171.079229  	89.852250 
1172.516136  	89.828922 
1173.953043  	89.824377 
1175.389950  	89.821210 
1176.826857  	89.792278 
1178.263764  	89.770684 
1179.700671  	89.729003 
1181.137578  	89.714858 
1182.574485  	89.734270 
1184.011392  	89.702227 
1185.448299  	89.666149 
1186.885206  	89.628377 
1188.322113  	89.563172 
1189.759020  	89.535106 
1191.195927  	89.502295 
1192.632834  	89.434270 
1194.069741  	89.366848 
1195.506648  	89.276052 
1196.943555  	89.175857 
1198.380462  	89.067690 
1199.817369  	88.931193 
1201.254276  	88.801801 
1202.691183  	88.678325 
1204.128090  	88.559722 
1205.564997  	88.468497 
1207.001904  	88.411883 
1208.438811  	88.421418 
1209.875718  	88.478597 
1211.312625  	88.540440 
1212.749532  	88.614996 
1214.186439  	88.694300 
1215.623346  	88.780478 
1217.060253  	88.850358 
1218.497160  	88.877052 
1219.934068  	88.905502 
1221.370975  	88.917312 
1222.807882  	88.910837 
1224.244789  	88.924720 
1225.681696  	88.903657 
1227.118603  	88.882539 
1228.555510  	88.915208 
1229.992417  	88.935991 
1231.429324  	88.951460 
1232.866231  	88.958189 
1234.303138  	88.932326 
1235.740045  	88.930234 
1237.176952  	88.942078 
1238.613859  	88.959360 
1240.050766  	88.992842 
1241.487673  	89.008085 
1242.924580  	89.032642 
1244.361487  	89.048541 
1245.798394  	89.035724 
1247.235301  	89.052837 
1248.672208  	89.052477 
1250.109115  	89.022068 
1251.546022  	89.012717 
1252.982929  	88.989596 
1254.419836  	88.969079 
1255.856743  	88.950620 
1257.293650  	88.917062 
1258.730557  	88.919693 
1260.167464  	88.902089 
1261.604371  	88.855030 
1263.041278  	88.854831 
1264.478185  	88.835851 
1265.915092  	88.781593 
1267.351999  	88.732941 
1268.788907  	88.673462 
1270.225814  	88.623262 
1271.662721  	88.559560 
1273.099628  	88.478289 
1274.536535  	88.417295 
1275.973442  	88.342540 
1277.410349  	88.282861 
1278.847256  	88.254777 
1280.284163  	88.210339 
1281.721070  	88.184302 
1283.157977  	88.163131 
1284.594884  	88.125391 
1286.031791  	88.101359 
1287.468698  	88.046227 
1288.905605  	87.986079 
1290.342512  	87.952648 
1291.779419  	87.883513 
1293.216326  	87.806988 
1294.653233  	87.729925 
1296.090140  	87.633073 
1297.527047  	87.558807 
1298.963954  	87.470004 
1300.400861  	87.360146 
1301.837768  	87.234616 
1303.274675  	87.105771 
1304.711582  	86.973872 
1306.148489  	86.863921 
1307.585396  	86.695972 
1309.022303  	86.506716 
1310.459210  	86.306382 
1311.896117  	86.051228 
1313.333024  	85.772054 
1314.769931  	85.474530 
1316.206838  	85.142461 
1317.643745  	84.790507 
1319.080653  	84.442571 
1320.517560  	84.160751 
1321.954467  	83.964212 
1323.391374  	83.857066 
1324.828281  	83.896536 
1326.265188  	84.029679 
1327.702095  	84.246685 
1329.139002  	84.534849 
1330.575909  	84.805677 
1332.012816  	85.055776 
1333.449723  	85.264289 
1334.886630  	85.267934 
1336.323537  	85.253548 
1337.760444  	85.204892 
1339.197351  	85.127182 
1340.634258  	85.046486 
1342.071165  	84.928348 
1343.508072  	84.741018 
1344.944979  	84.469075 
1346.381886  	84.222472 
1347.818793  	83.843938 
1349.255700  	83.401234 
1350.692607  	82.903979 
1352.129514  	82.446350 
1353.566421  	82.023967 
1355.003328  	81.669329 
1356.440235  	81.477532 
1357.877142  	81.382186 
1359.314049  	81.392910 
1360.750956  	81.510038 
1362.187863  	81.682012 
1363.624770  	82.032323 
1365.061677  	82.346706 
1366.498584  	82.498749 
1367.935491  	82.486003 
1369.372399  	82.453913 
1370.809306  	82.385768 
1372.246213  	82.274759 
1373.683120  	82.132405 
1375.120027  	81.990588 
1376.556934  	81.852471 
1377.993841  	81.697372 
1379.430748  	81.552638 
1380.867655  	81.380800 
1382.304562  	81.105634 
1383.741469  	80.834788 
1385.178376  	80.515555 
1386.615283  	80.190595 
1388.052190  	79.903285 
1389.489097  	79.603662 
1390.926004  	79.315250 
1392.362911  	79.065097 
1393.799818  	78.803866 
1395.236725  	78.611489 
1396.673632  	78.420161 
1398.110539  	78.190005 
1399.547446  	78.047626 
1400.984353  	77.970205 
1402.421260  	77.909002 
1403.858167  	78.025125 
1405.295074  	78.321348 
1406.731981  	78.809929 
1408.168888  	79.404704 
1409.605795  	80.106309 
1411.042702  	80.942058 
1412.479609  	81.755192 
1413.916516  	82.062884 
1415.353423  	82.807916 
1416.790330  	83.403029 
1418.227238  	83.963828 
1419.664145  	84.608072 
1421.101052  	85.129508 
1422.537959  	85.473097 
1423.974866  	85.726375 
1425.411773  	86.153515 
1426.848680  	86.631470 
1428.285587  	86.670170 
1429.722494  	86.703759 
1431.159401  	86.722590 
1432.596308  	86.777889 
1434.033215  	86.856738 
1435.470122  	86.850736 
1436.907029  	86.931100 
1438.343936  	87.115797 
1439.780843  	87.239869 
1441.217750  	87.436320 
1442.654657  	87.558771 
1444.091564  	87.700496 
1445.528471  	87.782677 
1446.965378  	87.809186 
1448.402285  	87.862865 
1449.839192  	87.947627 
1451.276099  	87.973730 
1452.713006  	88.006631 
1454.149913  	87.994853 
1455.586820  	87.919504 
1457.023727  	87.908604 
1458.460634  	87.980151 
1459.897541  	88.091619 
1461.334448  	88.215212 
1462.771355  	88.277519 
1464.208262  	88.353911 
1465.645169  	88.450167 
1467.082076  	88.482124 
1468.518984  	88.540473 
1469.955891  	88.566671 
1471.392798  	88.554080 
1472.829705  	88.577923 
1474.266612  	88.634580 
1475.703519  	88.691342 
1477.140426  	88.716098 
1478.577333  	88.748227 
1480.014240  	88.793297 
1481.451147  	88.818094 
1482.888054  	88.864069 
1484.324961  	88.865663 
1485.761868  	88.764782 
1487.198775  	88.686421 
1488.635682  	88.599317 
1490.072589  	88.536249 
1491.509496  	88.582978 
1492.946403  	88.543761 
1494.383310  	88.481074 
1495.820217  	88.420762 
1497.257124  	88.296504 
1498.694031  	88.283884 
1500.130938  	88.258991 
1501.567845  	88.187292 
1503.004752  	88.154675 
1504.441659  	88.075863 
1505.878566  	87.949101 
1507.315473  	87.867121 
1508.752380  	87.796277 
1510.189287  	87.783767 
1511.626194  	87.711338 
1513.063101  	87.657707 
1514.500008  	87.646247 
1515.936915  	87.551407 
1517.373822  	87.471517 
1518.810730  	87.402738 
1520.247637  	87.219418 
1521.684544  	87.148539 
